Wavelength	Ele	  excit	  log gf			 EW
10065.050       26.0      4.83    -0.279                         96.7
10081.390       26.0      2.42    -4.512                         56.5
10086.240       26.0      2.95    -3.978                         37.7
10145.560       26.0      4.80    -0.118                        111.8
10155.160       26.0      2.18    -4.336                         80.5
10156.510       26.0      4.59    -2.109                         23.2
10167.470       26.0      2.20    -2.319                         93.7
10195.110       26.0      2.73    -3.608                         77.2
10216.310       26.0      4.73     0.047                        122.3
10218.410       26.0      3.07    -2.893                         97.0
10265.220       26.0      2.22    -4.648                         59.4
10332.330       26.0      3.63    -3.131                         39.3
10340.890       26.0      2.20    -3.665                        127.8
10347.970       26.0      5.39    -0.717                         39.9
10379.000       26.0      2.22    -4.236                         84.7
10395.800       26.0      2.18    -3.435                        145.7
10423.030       26.0      2.69    -3.658                         82.8
10423.740       26.0      3.07    -3.119                         82.7
10469.650       26.0      3.88    -1.277                        126.1
10532.240       26.0      3.93    -1.650                        101.8
10577.140       26.0      3.30    -3.222                         63.3
10616.720       26.0      3.27    -3.306                         49.3
10725.190       26.0      3.64    -2.948                         51.6
10753.000       26.0      3.96    -2.077                         73.3
10780.690       26.0      3.24    -3.553                         43.7
10783.050       26.0      3.11    -2.786                        105.8
10818.280       26.0      3.96    -2.160                         66.0
10863.520       26.0      4.73    -0.877                         72.8
10884.260       26.0      3.93    -2.129                         78.5
10896.300       26.0      3.07    -2.911                        105.8
12053.080       26.0      4.56    -1.602                         73.8
12227.110       26.0      4.61    -1.408                        116.3
12340.480       26.0      2.28    -4.680                         62.6
12342.920       26.0      4.64    -1.545                         68.4
12557.000       26.0      2.28    -4.026                        130.8
12807.150       26.0      3.64    -2.649                        110.8
12808.240       26.0      4.99    -1.811                         41.0
12824.860       26.0      3.02    -3.612                         93.8
12879.770       26.0      2.28    -3.525                        170.5
12933.010       26.0      5.02    -1.879                         28.5
12934.670       26.0      5.39    -1.103                         44.7
15194.490       26.0      2.22    -4.808                        132.5
15490.340       26.0      2.20    -4.787                        143.7
15611.150       26.0      3.42    -2.966                        114.4
15648.510       26.0      5.43    -0.633                        149.0
17420.830       26.0      3.88    -3.628                         56.0
19923.340       26.0      5.02    -1.536                        121.9
21851.380       26.0      3.64    -3.578                         75.2
22392.880       26.0      5.10    -1.330                        134.7
10427.310       26.1      6.08    -1.575                         15.6
10501.500       26.1      5.55    -1.861                         15.9
