Wavelength	Ele	  excit	  loggf			 EW
 10065.05    26.0        4.83     -0.279                        94.0
 10070.52    26.0        5.51     -1.448                         7.7
 10080.42    26.0        5.10     -1.964                         5.9
 10081.39    26.0        2.42     -4.512                         6.9
 10086.24    26.0        2.95     -3.978                         7.0
 10137.10    26.0        5.09     -1.736                         9.8
 10142.84    26.0        5.06     -1.554                        14.9
 10145.56    26.0        4.80     -0.118                       109.0
 10155.16    26.0        2.18     -4.336                        16.2
 10156.51    26.0        4.59     -2.109                        12.2
 10167.47    26.0        2.20     -2.319                       125.7
 10195.11    26.0        2.73     -3.608                        22.6
 10198.43    26.0        6.02     -1.260                         4.2
 10216.31    26.0        4.73      0.047                       129.9
 10218.41    26.0        3.07     -2.893                        40.9
 10227.99    26.0        6.12     -0.398                        20.7
 10230.80    26.0        6.12     -0.358                        22.3
 10265.22    26.0        2.22     -4.648                         8.1
 10283.78    26.0        5.51     -1.502                         7.1
 10307.45    26.0        4.59     -2.432                         6.4
 10327.34    26.0        5.54      0.707                       135.2
 10332.33    26.0        3.63     -3.131                        10.5
 10340.89    26.0        2.20     -3.665                        46.6
 10347.97    26.0        5.39     -0.717                        37.0
 10353.81    26.0        5.39     -0.989                        24.2
 10364.06    26.0        5.45     -1.100                        18.0
 10379.00    26.0        2.22     -4.236                        18.7
 10388.75    26.0        5.45     -1.471                         8.7
 10395.80    26.0        2.18     -3.435                        61.3
 10423.03    26.0        2.69     -3.658                        22.9
 10423.74    26.0        3.07     -3.119                        29.9
 10469.65    26.0        3.88     -1.277                        89.3
 10532.24    26.0        3.93     -1.650                        64.4
 10535.71    26.0        6.21     -0.165                        28.6
 10546.43    26.0        6.27     -0.771                         7.8
 10555.65    26.0        5.45     -1.282                        13.1
 10577.14    26.0        3.30     -3.222                        17.2
 10611.69    26.0        6.17      0.013                        40.8
 10616.72    26.0        3.27     -3.306                        15.6
 10674.07    26.0        6.17     -0.556                        15.0
 10687.80    26.0        5.51     -1.834                         3.7
 10725.19    26.0        3.64     -2.948                        15.7
 10753.00    26.0        3.96     -2.077                        39.7
 10771.23    26.0        5.59     -1.358                         8.9
 10775.50    26.0        6.22     -0.878                         7.1
 10780.69    26.0        3.24     -3.553                        10.4
 10783.05    26.0        3.11     -2.786                        47.0
 10785.39    26.0        5.62     -1.245                        10.6
 10818.28    26.0        3.96     -2.160                        35.6
 10863.52    26.0        4.73     -0.877                        67.1
 10884.26    26.0        3.93     -2.129                        39.1
 10896.30    26.0        3.07     -2.911                        42.9
 11013.24    26.0        4.80     -1.240                        42.4
 11026.79    26.0        3.94     -2.517                        21.2
 11119.80    26.0        2.85     -2.452                        84.8
 11402.73    26.0        6.26      0.023                        41.5
 11641.80    26.0        4.58     -2.116                        15.6
 11743.69    26.0        5.95     -1.164                         7.9
 11778.42    26.0        5.34     -1.708                         8.4
 11890.50    26.0        5.54     -0.248                        68.9
 11943.39    26.0        5.95     -0.989                        11.8
 12053.08    26.0        4.56     -1.602                        41.3
 12119.50    26.0        4.59     -1.897                        25.0
 12131.18    26.0        5.95     -1.242                         7.2
 12213.34    26.0        4.64     -2.006                        19.1
 12227.11    26.0        4.61     -1.408                        51.5
 12244.92    26.0        3.64     -3.222                        11.8
 12283.28    26.0        6.17     -0.593                        18.7
 12340.48    26.0        2.28     -4.680                         9.4
 12342.92    26.0        4.64     -1.545                        42.1
 12459.76    26.0        5.62     -1.658                         6.1
 12510.52    26.0        4.96     -1.930                        12.9
 12557.00    26.0        2.28     -4.026                        33.8
 12615.93    26.0        4.64     -1.686                        35.7
 12638.70    26.0        4.56     -0.679                       112.3
 12807.15    26.0        3.64     -2.649                        37.1
 12808.24    26.0        4.99     -1.811                        16.4
 12824.86    26.0        3.02     -3.612                        20.1
 12840.57    26.0        4.96     -1.612                        25.3
 12879.77    26.0        2.28     -3.525                        68.7
 12896.12    26.0        4.91     -1.713                        23.2
 12933.01    26.0        5.02     -1.879                        13.9
 12934.67    26.0        5.39     -1.103                        30.9
 13014.84    26.0        5.45     -1.542                        12.3
 13352.17    26.0        5.31     -0.355                        94.4
 13392.10    26.0        5.35     -0.105                       115.1
 14641.09    26.0        6.28     -1.167                         8.0
 14641.66    26.0        6.28     -0.798                        17.5
 14979.70    26.0        6.17     -0.657                        30.2
 14982.80    26.0        6.26     -0.689                        24.4
 15017.70    26.0        6.22     -0.155                        66.3
 15094.70    26.0        6.36      0.355                       115.9
 15095.86    26.0        6.22      0.062                        90.9
 15122.38    26.0        5.62     -0.322                       101.9
 15136.13    26.0        5.83     -0.647                        53.1
 15176.72    26.0        5.92     -0.897                        30.4
 15194.49    26.0        2.22     -4.808                        14.1
 15198.80    26.0        6.31     -0.935                        14.1
 15201.57    26.0        5.49     -1.315                        29.0
 15207.53    26.0        5.38      0.311                       215.9
 15213.02    26.0        6.31     -0.801                        18.7
 15216.89    26.0        5.51     -1.764                        11.4
 15219.62    26.0        5.59      0.149                       164.8
 15224.73    26.0        5.96     -0.439                        62.3
 15227.88    26.0        6.31     -1.255                         7.1
 15244.97    26.0        5.59      0.073                       154.7
 15289.99    26.0        6.28     -0.859                        17.8
 15335.38    26.0        5.41      0.252                       205.2
 15375.34    26.0        5.92     -0.995                        26.2
 15394.67    26.0        5.62      0.094                       157.9
 15395.72    26.0        5.62     -0.095                       133.0
 15427.62    26.0        6.45     -1.029                         9.2
 15451.30    26.0        6.45     -0.507                        27.8
 15451.94    26.0        6.29     -0.936                        15.4
 15476.50    26.0        6.32     -1.182                         8.6
 15485.46    26.0        6.28     -0.864                        18.3
 15490.34    26.0        2.20     -4.787                        16.1
 15490.88    26.0        6.29     -0.586                        31.3
 15496.70    26.0        6.29     -0.366                        46.9
 15500.80    26.0        6.32     -0.122                        67.3
 15501.32    26.0        6.29      0.057                        90.2
 15514.28    26.0        6.29     -0.663                        27.1
 15522.61    26.0        6.32     -1.014                        12.5
 15524.31    26.0        5.79     -1.415                        14.7
 15527.21    26.0        6.32     -0.929                        15.0
 15531.75    26.0        5.64     -0.447                        92.8
 15534.25    26.0        5.64     -0.232                       117.0
 15542.08    26.0        5.64     -0.452                        92.4
 15550.44    26.0        6.32     -0.345                        47.0
 15551.43    26.0        6.35     -0.288                        49.7
 15560.79    26.0        6.35     -0.469                        35.9
 15565.23    26.0        6.32     -0.886                        16.5
 15566.73    26.0        6.35     -0.493                        34.4
 15571.12    26.0        5.88     -1.578                         8.8
 15579.08    26.0        6.32     -1.030                        12.2
 15588.26    26.0        6.37      0.240                       107.8
 15590.05    26.0        6.24     -0.521                        39.0
 15591.49    26.0        6.24      0.741                       226.3
 15593.74    26.0        5.03     -1.796                        28.0
 15598.87    26.0        6.24     -0.853                        20.6
 15611.15    26.0        3.42     -2.966                        51.6
 15613.63    26.0        6.35     -0.223                        56.1
 15631.95    26.0        5.35      0.171                       207.0
 15647.42    26.0        6.33     -1.087                        10.7
 15648.51    26.0        5.43     -0.633                        93.8
 15652.87    26.0        6.25     -0.079                        79.7
 15656.63    26.0        5.87     -1.599                         8.7
 15670.13    26.0        6.21     -1.010                        15.9
 15671.01    26.0        6.33     -0.535                        33.4
 15671.87    26.0        5.92     -1.342                        13.7
 15676.58    26.0        5.11     -1.848                        22.3
 15677.52    26.0        6.25      0.079                        99.1
 15682.52    26.0        6.37     -0.442                        37.4
 15723.59    26.0        5.62      0.194                       180.1
 15731.42    26.0        6.45     -0.566                        26.0
 15733.51    26.0        6.25     -0.628                        32.2
 15751.71    26.0        6.36     -1.016                        12.0
 15789.00    26.0        6.25      0.320                       134.2
 15816.63    26.0        5.96     -0.626                        51.2
 15818.14    26.0        5.59      0.583                       262.4
 15819.13    26.0        6.30      0.183                       110.0
 15821.71    26.0        5.64     -0.894                        52.6
 15822.82    26.0        5.64      0.010                       152.7
 15835.17    26.0        6.30      0.638                       183.7
 15837.65    26.0        6.30      0.154                       106.3
 15845.22    26.0        5.98     -1.225                        16.1
 15864.65    26.0        6.36     -0.644                        26.5
 15878.44    26.0        5.62     -0.611                        81.3
 15891.16    26.0        6.31     -0.544                        35.1
 15901.52    26.0        5.92     -0.511                        65.5
 15906.04    26.0        5.62     -0.028                       151.0
 15911.31    26.0        5.87     -0.127                       112.9
 15928.16    26.0        5.95     -0.812                        38.4
 15929.48    26.0        6.31     -0.558                        34.3
 15934.02    26.0        6.31     -0.405                        45.5
 15940.92    26.0        5.81     -1.164                        25.2
 15941.85    26.0        6.36     -0.074                        73.6
 15964.87    26.0        5.92     -0.055                       117.7
 16012.86    26.0        5.59     -1.993                         6.8
 16019.79    26.0        6.35     -0.931                        15.3
 16029.42    26.0        6.35     -0.743                        22.6
 16037.82    26.0        6.26      0.195                       118.5
 16040.66    26.0        5.87      0.239                       165.4
 16051.74    26.0        6.26     -0.946                        17.6
 16070.18    26.0        5.96     -0.883                        33.8
 16071.40    26.0        6.27     -0.012                        90.4
 16072.24    26.0        6.35     -0.145                        67.8
 16100.28    26.0        6.35     -0.144                        68.1
 16156.56    26.0        5.96     -0.406                        74.6
 16174.98    26.0        6.38      0.180                       106.0
 16177.99    26.0        6.38     -0.588                        29.7
 16179.58    26.0        6.32     -0.121                        73.7
 16180.90    26.0        6.28      0.065                       100.2
 16195.06    26.0        6.39      0.225                       111.6
 16198.50    26.0        5.41     -0.376                       131.4
 16203.33    26.0        6.32     -0.583                        33.3
 16204.25    26.0        6.32      0.266                       124.7
 16207.75    26.0        6.32      0.524                       166.9
 16213.00    26.0        6.32     -0.430                        44.2
 16213.54    26.0        6.28      0.171                       114.9
 16225.62    26.0        6.38      0.060                        90.3
 16227.15    26.0        6.24     -0.967                        17.8
 16231.65    26.0        6.38      0.517                       159.9
 16235.97    26.0        5.92     -0.281                        92.8
 16240.87    26.0        6.32     -0.797                        21.8
 16243.07    26.0        6.28     -1.004                        15.3
 16245.76    26.0        6.32     -0.697                        26.7
 16246.46    26.0        6.28     -0.139                        75.7
 16252.55    26.0        6.32     -0.545                        35.9
 16272.47    26.0        6.28     -0.928                        18.0
 16284.77    26.0        6.40      0.196                       107.2
 16292.84    26.0        5.92     -0.499                        69.3
 16331.53    26.0        5.98     -0.555                        59.0
 16333.14    26.0        5.64     -1.438                        20.7
 16345.50    26.0        6.47     -0.588                        25.8
 16366.34    26.0        6.36     -0.516                        35.8
 16377.39    26.0        6.37     -0.390                        44.5
 16384.14    26.0        6.36     -0.353                        48.3
 16394.39    26.0        5.96      0.253                       161.6
 16404.62    26.0        6.36      0.314                       129.2
 16410.39    26.0        6.28     -1.138                        11.6
 16412.97    26.0        6.29     -0.367                        52.2
 16436.62    26.0        5.92     -0.444                        75.3
 16440.40    26.0        6.29     -0.285                        59.9
 16444.82    26.0        5.83      0.622                       247.6
 16466.92    26.0        6.39      0.122                        98.3
 16471.76    26.0        6.37     -0.705                        24.3
 16474.08    26.0        6.02     -0.521                        59.1
 16476.94    26.0        6.29     -0.437                        46.2
 16521.51    26.0        6.29     -0.646                        31.4
 16522.08    26.0        6.29     -0.172                        71.6
 16524.47    26.0        6.34      0.404                       145.6
 16531.99    26.0        6.29      0.100                       105.1
 16539.20    26.0        6.34     -0.251                        59.2
 16541.97    26.0        6.34     -0.362                        48.9
 16544.67    26.0        6.34     -0.333                        51.5
 16552.00    26.0        6.41     -0.010                        79.4
 16559.68    26.0        6.40     -0.204                        58.9
 16561.77    26.0        5.98      0.354                       176.0
 16586.05    26.0        5.62     -1.428                        22.0
 16607.64    26.0        6.34     -0.574                        33.1
 16612.76    26.0        6.40     -0.239                        55.6
 16645.88    26.0        5.96     -0.167                       103.5
 16661.38    26.0        6.34      0.023                        90.0
 16665.48    26.0        6.02     -0.125                       102.6
 16720.73    26.0        6.38     -0.651                        26.6
 16721.47    26.0        6.38     -0.487                        36.5
 16724.69    26.0        6.38     -0.793                        19.9
 16753.07    26.0        6.38      0.127                        99.7
 16786.59    26.0        6.35     -1.111                        10.7
 16792.23    26.0        6.35     -1.059                        12.0
 16794.21    26.0        6.57     -0.441                        29.2
 16799.65    26.0        5.87     -0.603                        63.6
 16807.44    26.0        5.83     -1.591                        10.5
 16833.06    26.0        5.96     -1.211                        18.2
 16837.82    26.0        6.41     -0.156                        62.8
 16843.23    26.0        5.87     -1.367                        15.6
 16865.52    26.0        6.41     -0.798                        18.6
 16874.12    26.0        6.35     -0.836                        19.2
 17009.02    26.0        6.62     -0.300                        35.4
 17037.79    26.0        6.39     -0.462                        37.6
 17130.96    26.0        6.35     -0.622                        29.5
 17161.11    26.0        6.02     -0.137                       101.1
 17204.30    26.0        6.02     -0.047                       112.5
 17221.40    26.0        6.43     -0.761                        19.3
 17282.29    26.0        6.43     -0.153                        61.2
 17293.12    26.0        6.32     -0.743                        24.4
 17293.65    26.0        6.32     -0.625                        30.8
 17400.58    26.0        6.37     -0.699                        24.4
 17420.83    26.0        3.88     -3.628                         6.7
 17433.64    26.0        6.41     -0.487                        34.5
 17453.84    26.0        6.41     -0.637                        25.7
 17518.07    26.0        5.87     -1.322                        17.1
 17564.83    26.0        5.90     -0.763                        47.0
 17577.80    26.0        6.38     -0.682                        24.7
 17683.92    26.0        6.34      0.076                        96.1
 17714.36    26.0        6.58     -0.359                        33.3
 17728.10    26.0        6.58      0.253                        96.4
 19923.34    26.0        5.02     -1.536                        49.7
 21216.31    26.0        6.46     -1.112                         8.1
 21553.30    26.0        6.70     -0.828                         9.3
 21735.46    26.0        6.17     -0.803                        27.0
 21813.98    26.0        5.85     -1.652                         8.5
 21816.57    26.0        6.78     -0.491                        16.5
 21832.98    26.0        6.78     -0.605                        12.9
 21851.38    26.0        3.64     -3.578                        12.7
 22257.11    26.0        5.06     -0.704                       132.5
 22380.80    26.0        5.03     -0.377                       179.4
 22392.88    26.0        5.10     -1.330                        60.8
 22419.98    26.0        6.22     -0.326                        58.8
 22619.84    26.0        4.99     -0.564                       158.2
 23308.48    26.0        4.08     -2.705                        31.3
 24552.01    26.0        5.92     -0.958                        30.7
 24648.43    26.0        6.27     -0.109                        76.1
 10427.31    26.1        6.08     -1.575                        13.7
 10501.50    26.1        5.55     -1.861                        19.5
 10862.64    26.1        5.59     -2.006                        15.3
 11125.58    26.1        5.62     -2.213                        10.5
 13251.14    26.1        9.41      0.768                        13.4
